# Theta[deg]   da/a_dipole[ppm]  e(da/a_dipole)[ppm]
2.14389 10.1929 2.09935
2.31117 10.1917 2.0992
3.11194 10.185 2.09866
3.24643 10.1836 2.09848
3.36165 10.1824 2.09802
3.67887 10.179 2.09758
4.16861 10.173 2.09706
4.46545 10.169 2.09653
5.04318 10.1605 2.09523
5.3989 10.1548 2.09449
5.7962 10.1479 2.0937
6.15295 10.1412 2.09282
6.85205 10.1271 2.09099
7.03599 10.1232 2.09338
7.08071 10.1222 2.09326
7.22042 10.1191 2.08998
7.42864 10.1144 2.09231
7.55491 10.1115 2.09196
7.63488 10.1096 2.08862
8.01508 10.1004 2.0874
8.04791 10.0995 2.09132
8.1074 10.0981 2.09111
8.1949 10.0958 2.09008
8.38467 10.091 2.08949
8.56824 10.0862 2.08946
8.70536 10.0825 2.08536
8.7347 10.0817 2.08884
9.07856 10.0722 2.08407
9.24015 10.0676 2.08669
9.47473 10.0609 2.08587
9.55979 10.0584 2.08185
9.57304 10.058 2.08554
9.82011 10.0506 2.08451
9.95034 10.0466 2.0803
10.4784 10.0299 2.08217
10.5755 10.0267 2.07837
10.7431 10.0212 2.08113
10.9271 10.0151 2.07961
10.9503 10.0143 2.07681
11.229 10.0047 2.07818
11.5235 9.9944 2.07345
11.8457 9.98278 2.07656
11.9188 9.9801 2.07158
12.0171 9.97647 2.08087
12.0384 9.97568 2.08078
12.1306 9.97225 2.07532
12.2078 9.96935 2.08006
12.2706 9.96698 2.0798
12.4502 9.96014 2.07009
12.5145 9.95766 2.07171
12.6001 9.95435 2.07836
12.7013 9.9504 2.07792
12.825 9.94554 2.06828
12.8523 9.94446 2.0699
13.0327 9.93726 2.07749
13.0734 9.93563 2.07725
13.175 9.93152 2.07578
13.2986 9.92648 2.06992
13.3097 9.92603 2.07516
13.3945 9.92254 2.07537
13.5045 9.91799 2.06351
13.5129 9.91764 2.07466
13.5967 9.91414 2.06847
13.9016 9.90124 2.06134
13.9078 9.90098 2.07234
14.071 9.89395 2.07156
14.1271 9.89152 2.07091
14.2538 9.88599 2.06192
14.3134 9.88337 2.06974
14.3228 9.88296 2.06058
14.6148 9.86997 2.05974
14.6967 9.86628 2.05854
14.7727 9.86284 2.06808
14.8078 9.86124 2.06229
14.9593 9.85432 2.06712
15.1145 9.84715 2.06065
15.175 9.84433 2.06415
15.4169 9.83297 2.06252
15.4912 9.82945 2.0521
15.7451 9.81728 2.06301
15.8885 9.81032 2.04965
15.9506 9.80729 2.0619
16.0917 9.80036 2.05032
16.1892 9.79553 2.04994
16.3532 9.78735 2.05373
16.4678 9.78159 2.04779
16.4758 9.78118 2.05515
16.5614 9.77685 2.04768
16.6653 9.77156 2.05192
16.7611 9.76666 2.05309
16.8034 9.76448 2.05719
17.0092 9.75383 2.0621
17.0207 9.75323 2.06204
17.0236 9.75308 2.05593
17.1124 9.74844 2.06153
17.1466 9.74664 2.06134
17.3278 9.73708 2.06033
17.384 9.7341 2.06002
17.4766 9.72916 2.03934
17.6507 9.71981 2.05851
17.7275 9.71566 2.05808
17.8731 9.70773 2.03663
17.9209 9.70512 2.04433
17.9288 9.70468 2.05065
17.9716 9.70234 2.044
17.9934 9.70114 2.03703
18.0258 9.69936 2.05746
18.046 9.69824 2.03825
18.0579 9.69758 2.0572
18.074 9.6967 2.05609
18.1606 9.69191 2.04927
18.17 9.69138 2.05553
18.2361 9.6877 2.04235
18.2897 9.68472 2.04152
18.3131 9.68341 2.05509
18.3793 9.6797 2.03418
18.4079 9.67809 2.05431
18.416 9.67764 2.03579
18.5894 9.66784 2.05308
18.7027 9.66139 2.05241
18.9047 9.6498 2.05011
19.0572 9.64097 2.04881
19.1059 9.63813 2.04346
19.1876 9.63336 2.0495
19.3164 9.6258 2.04872
19.3464 9.62404 2.04195
19.4559 9.61756 2.02533
19.5007 9.6149 2.03415
19.6141 9.60814 2.0308
19.7719 9.59868 2.04257
19.8175 9.59593 2.03203
19.8507 9.59392 2.02239
19.8592 9.59341 2.04538
19.8907 9.5915 2.02561
19.9361 9.58875 2.02216
19.9568 9.58749 2.02793
19.9752 9.58637 2.04076
20.0014 9.58478 2.0445
20.258 9.56906 2.02298
20.3218 9.56512 2.03567
20.328 9.56473 2.01901
20.5687 9.54977 2.03404
20.5944 9.54816 2.04076
20.7483 9.53849 2.03978
20.8783 9.53027 2.03253
21.0852 9.51708 2.02329
21.1249 9.51453 2.03023
21.3657 9.49899 2.01567
21.3842 9.4978 2.03566
21.402 9.49664 2.02104
21.4255 9.49511 2.01021
21.5479 9.48713 2.03458
21.5659 9.48595 2.02733
21.721 9.47577 2.01214
21.7265 9.47541 2.01243
21.8173 9.46941 2.0256
21.818 9.46937 2.00706
21.9038 9.46368 2.00586
22.0048 9.45695 2.03746
22.0108 9.45655 2.03742
22.059 9.45334 2.03711
22.077 9.45213 2.037
22.0851 9.45159 2.00936
22.1726 9.44572 2.03637
22.1856 9.44485 2.02009
22.2024 9.44372 2.03618
22.2199 9.44254 2.03012
22.2993 9.43719 2.00243
22.3445 9.43413 2.03525
22.3857 9.43134 2.03498
22.3918 9.43093 2.02896
22.4679 9.42576 2.01733
22.5725 9.41862 2.03376
22.6246 9.41506 2.03341
22.6682 9.41207 2.01183
22.8294 9.40097 2.01852
22.8542 9.39926 2.03189
22.9167 9.39493 2.03148
22.9842 9.39025 2.00947
23.0218 9.38763 2.03167
23.049 9.38574 2.03139
23.0838 9.38331 2.0167
23.0935 9.38264 2.02418
23.1865 9.37613 2.02968
23.1974 9.37536 1.99876
23.2587 9.37106 2.0292
23.2656 9.37058 2.02908
23.2721 9.37012 2.02295
23.3462 9.36489 2.02821
23.3823 9.36235 1.99411
23.5348 9.35154 1.99796
23.566 9.34932 2.02713
23.5713 9.34894 1.99518
23.6472 9.34353 2.02658
23.6574 9.3428 2.00537
23.7715 9.33464 2.02362
23.7719 9.3346 1.99078
23.8852 9.32645 1.98827
23.8955 9.32572 1.99504
23.9027 9.3252 2.02219
23.9686 9.32043 2.00216
23.989 9.31896 2.02425
23.9977 9.31833 2.01789
24.0784 9.31248 2.02364
24.105 9.31054 2.00929
24.1817 9.30496 2.01659
24.2451 9.30033 1.99986
24.2824 9.2976 1.98461
24.361 9.29184 2.0074
24.4516 9.28518 2.02108
24.5221 9.27997 2.01535
24.5485 9.27802 2.02041
24.5594 9.27722 1.99742
24.6996 9.26681 2.01337
24.926 9.2499 2.01128
24.9499 9.2481 2.01762
25.0535 9.24031 2.0169
25.0872 9.23777 1.98022
25.114 9.23574 2.00992
25.2617 9.22456 1.9885
25.3238 9.21983 1.97718
25.3303 9.21934 1.98318
25.3865 9.21505 1.99973
25.4705 9.20863 1.97634
25.4799 9.20791 2.0139
25.4942 9.20682 2.00435
25.5893 9.19951 2.01313
25.5959 9.19901 1.98488
25.643 9.19538 1.99778
25.687 9.19199 1.98016
25.71 9.19021 1.9737
25.7129 9.18999 2.00183
25.8118 9.18234 1.98749
25.8719 9.17767 1.96956
25.8724 9.17764 2.00441
26.0376 9.16477 2.00995
26.0633 9.16275 2.003
26.1236 9.15803 1.98498
26.1521 9.1558 2.00913
26.2693 9.14658 1.9657
26.6191 9.11885 2.00579
26.6613 9.11548 1.99072
26.6685 9.11491 1.98989
26.7379 9.10936 2.00493
26.8314 9.10185 1.99731
26.9157 9.09507 1.98769
26.9245 9.09436 1.9879
26.9709 9.09062 1.96965
27.002 9.08811 2.00751
27.0045 9.0879 2.00749
27.0179 9.08682 1.96024
27.0243 9.0863 1.99587
27.0244 9.08629 2.00735
27.0319 9.08569 2.0073
27.0717 9.08247 2.00702
27.0841 9.08146 2.00693
27.1053 9.07974 1.96794
27.1434 9.07665 2.00651
27.1606 9.07525 2.00639
27.2206 9.07037 2.00144
27.2391 9.06887 2.00583
27.2475 9.06818 1.95957
27.261 9.06708 2.00567
27.3233 9.062 1.96565
27.343 9.06038 2.00055
27.3581 9.05915 2.00498
27.3649 9.05859 1.97481
27.3846 9.05698 2.00479
27.4078 9.05508 1.95609
27.4577 9.05098 1.96484
27.4997 9.04754 2.00397
27.5306 9.04499 2.00375
27.6299 9.03681 1.95598
27.6629 9.03409 2.0028
27.6736 9.0332 1.97225
27.698 9.03118 2.00255
27.7982 9.02287 1.99005
27.8385 9.01953 1.99693
27.8467 9.01885 2.00148
27.8574 9.01796 1.94991
27.8858 9.01559 2.0012
27.9464 9.01054 1.97986
27.9638 9.00909 1.99601
27.9921 9.00672 1.98858
27.9965 9.00636 1.97459
28.0192 9.00446 2.0007
28.0431 9.00246 2.00039
28.0499 9.00189 2.00002
28.0928 8.9983 1.99971
28.2012 8.9892 1.97784
28.2341 8.98643 1.9979
28.2538 8.98477 1.94588
28.2714 8.98328 1.99843
28.2814 8.98244 1.97107
28.3053 8.98042 1.99697
28.3178 8.97937 1.99809
28.4693 8.96654 1.99229
28.5097 8.96311 1.99671
28.5593 8.95889 1.99635
28.5968 8.9557 1.99135
28.6819 8.94843 1.99202
28.7623 8.94156 1.94899
28.7635 8.94145 1.99487
28.7684 8.94104 1.98266
28.7985 8.93845 1.99048
28.816 8.93695 1.99449
28.8581 8.93334 1.95236
28.9012 8.92963 1.96193
28.9625 8.92436 1.98117
28.9765 8.92315 1.939
29.0314 8.91841 1.99292
29.0865 8.91364 1.99252
29.1098 8.91163 1.98755
29.1287 8.90999 1.94466
29.1512 8.90804 1.94144
29.2059 8.9033 1.94921
29.2063 8.90326 1.95933
29.2162 8.90239 1.96971
29.2387 8.90044 1.98659
29.3118 8.89408 1.99088
29.3512 8.89064 1.9831
29.3693 8.88906 1.99046
29.3706 8.88895 1.93463
29.4689 8.88035 1.96767
29.4739 8.87991 1.95611
29.5103 8.87673 1.98096
29.5294 8.87505 1.93777
29.6033 8.86856 1.98875
29.6628 8.86332 1.98832
29.738 8.85669 1.97519
29.7567 8.85504 1.98272
29.7843 8.85259 1.95215
29.8361 8.84801 1.92951
29.8865 8.84354 1.98175
29.9044 8.84196 1.98655
29.9315 8.83955 1.97369
29.9656 8.83652 1.9861
30.2134 8.8144 1.98429
30.2257 8.8133 1.97124
30.2307 8.81285 1.92535
30.2761 8.80878 1.98383
30.407 8.79701 1.97785
30.4182 8.796 1.94894
30.4236 8.79551 1.96852
30.4744 8.79093 1.9595
30.529 8.786 1.98197
30.5372 8.78525 1.97687
30.5868 8.78076 1.93658
30.5927 8.78023 1.9815
30.617 8.77803 1.92674
30.7033 8.7702 1.96769
30.719 8.76876 1.94634
30.7243 8.76829 1.95746
30.8495 8.75687 1.97961
30.8955 8.75267 1.96619
30.9141 8.75097 1.97914
30.9295 8.74956 1.93341
30.9525 8.74745 1.91673
30.9942 8.74364 1.92212
31.0328 8.74009 1.92297
31.058 8.73779 1.97295
31.0699 8.73669 1.93546
31.1736 8.72715 1.97722
31.188 8.72582 1.97197
31.2387 8.72114 1.97674
31.2864 8.71674 1.95655
31.3491 8.71094 1.91217
31.4014 8.70608 1.93109
31.4063 8.70563 1.91925
31.4997 8.69695 1.97482
31.5191 8.69515 1.95328
31.5651 8.69087 1.97434
31.6609 8.68193 1.9602
31.7069 8.67763 1.96806
31.7175 8.67664 1.94931
31.8039 8.66854 1.90855
31.8265 8.66642 1.97241
31.8362 8.66551 1.96708
31.8513 8.66409 1.95871
31.8918 8.66028 1.97192
31.9132 8.65827 1.93594
31.9641 8.65348 1.94728
32 8.65009 1.97294
32 8.65009 1.97294
32 8.65009 1.97294
32 8.65009 1.97294
32 8.65009 1.97294
32 8.65009 1.97294
32 8.65009 1.97294
32 8.65009 1.97294
32 8.65009 1.97294
32 8.65009 1.97294
32 8.65009 1.97294
32 8.65009 1.97294
32 8.65009 1.97294
32 8.65009 1.97294
32 8.65009 1.97294
32 8.65009 1.97294
32 8.65009 1.97294
32 8.65009 1.97294
32 8.65009 1.97294
32 8.65009 1.97294
32 8.65009 1.97294
32 8.65009 1.97294
32 8.65009 1.97294
32 8.65009 1.97294
32 8.65009 1.97294
32 8.65009 1.97294
32 8.65009 1.97294
32 8.65009 1.97294
32 8.65009 1.97294
32 8.65009 1.97294
32 8.65009 1.97294
32 8.65009 1.97294
32 8.65009 1.97294
32 8.65009 1.97294
32 8.65009 1.97294
32 8.65009 1.97294
32 8.65009 1.97294
32 8.65009 1.97294
32 8.65009 1.97294
32 8.65009 1.97294
32 8.65009 1.97294
32 8.65009 1.97294
32 8.65009 1.97294
32 8.65009 1.97294
32 8.65009 1.97294
32 8.65009 1.97294
32 8.65009 1.97294
32 8.65009 1.97294
32 8.65009 1.97294
32 8.65009 1.97294
32 8.65009 1.97294
32 8.65009 1.97294
32 8.65009 1.97294
32 8.65009 1.97294
32 8.65009 1.97294
32 8.65009 1.97294
32 8.65009 1.97294
32 8.65009 1.97294
32 8.65009 1.97294
32 8.65009 1.97294
32 8.65009 1.97294
32 8.65009 1.97294
32 8.65009 1.97294
32 8.65009 1.97294
32 8.65009 1.97294
32 8.65009 1.97294
32 8.65009 1.97294
32 8.65009 1.97294
32 8.65009 1.97294
32 8.65009 1.97294
32 8.65009 1.97294
32 8.65009 1.97294
32 8.65009 1.97294
32 8.65009 1.97294
32 8.65009 1.97294
32 8.65009 1.97294
32 8.65009 1.97294
32 8.65009 1.97294
32 8.65009 1.97294
32 8.65009 1.97294
32 8.65009 1.97294
32 8.65009 1.97294
32 8.65009 1.97294
32 8.65009 1.97294
32 8.65009 1.97294
32 8.65009 1.97294
32 8.65009 1.97294
32 8.65009 1.97294
32 8.65009 1.97294
32 8.65009 1.97294
32 8.65009 1.97294
32 8.65009 1.97294
32 8.65009 1.97294
32 8.65009 1.97294
32 8.65009 1.97294
32 8.65009 1.97294
32.1525 8.63567 1.97
32.1957 8.63158 1.90431
32.2093 8.63029 1.93335
32.2175 8.62951 1.96952
32.2896 8.62266 1.92074
32.3513 8.61679 1.96319
32.4765 8.60484 1.96761
32.4794 8.60456 1.96222
32.5128 8.60137 1.93916
32.5197 8.60071 1.90311
32.5409 8.59868 1.96713
32.6079 8.59226 1.95277
32.6268 8.59044 1.91757
32.7635 8.5773 1.91286
32.7761 8.57608 1.93537
32.7957 8.57419 1.9513
32.797 8.57407 1.96524
32.8606 8.56793 1.96477
32.8902 8.56507 1.90431
32.9048 8.56366 1.89824
32.9375 8.5605 1.89363
32.9427 8.55999 1.9392
32.9888 8.55553 1.95837
33.0173 8.55276 1.96527
33.0389 8.55066 1.96494
33.1122 8.54354 1.90812
33.1129 8.54348 1.96291
33.1153 8.54325 1.95741
33.1754 8.5374 1.96245
33.1853 8.53643 1.93719
33.2114 8.53389 1.9623
33.2586 8.52928 1.90058
33.2758 8.5276 1.96131
33.3349 8.52182 1.88893
33.3837 8.51704 1.92304
33.4229 8.51321 1.96062
33.4841 8.5072 1.96017
33.5413 8.50158 1.94544
33.6169 8.49413 1.95605
33.6172 8.49411 1.95362
33.6747 8.48843 1.92047
33.7228 8.48368 1.95441
33.7259 8.48338 1.95839
33.7261 8.48335 1.94399
33.7415 8.48183 1.95268
33.7566 8.48033 1.88724
33.7855 8.47748 1.95795
33.8842 8.46769 1.91925
33.9645 8.45972 1.90495
34.0207 8.45412 1.95622
34.0786 8.44835 1.95579
34.1451 8.44171 1.88295
34.1472 8.4415 1.92923
34.1742 8.43881 1.91498
34.2257 8.43365 1.94658
34.2343 8.43279 1.94897
34.2959 8.42661 1.90182
34.3064 8.42556 1.95412
34.3561 8.42057 1.94805
34.3623 8.41995 1.95371
34.3709 8.41909 1.94431
34.3854 8.41762 1.92726
34.4574 8.41038 1.87836
34.4585 8.41027 1.93825
34.5363 8.40243 1.88852
34.5818 8.39783 1.9521
34.6356 8.39239 1.9517
34.6398 8.39197 1.93683
34.7214 8.3837 1.88565
34.8277 8.37291 1.91031
34.8381 8.37185 1.94442
34.8462 8.37103 1.95016
34.8482 8.37082 1.87329
34.8976 8.36579 1.94978
34.8989 8.36566 1.88347
34.9243 8.36307 1.86994
34.9571 8.35972 1.94353
35.0259 8.35271 1.93398
35.0843 8.34674 1.88193
35.0984 8.34529 1.94832
35.1131 8.34379 1.9078
35.1474 8.34027 1.94796
35.2076 8.33409 1.9311
35.3213 8.32241 1.86516
35.3285 8.32167 1.91948
35.3379 8.32071 1.94657
35.3571 8.31873 1.93122
35.3809 8.31627 1.89701
35.3841 8.31594 1.94623
35.4269 8.31153 1.94001
35.5344 8.30042 1.92984
35.5427 8.29956 1.93915
35.5618 8.29758 1.91756
35.5636 8.2974 1.94492
35.6071 8.2929 1.94461
35.6096 8.29263 1.88937
35.691 8.28418 1.86578
35.6936 8.28391 1.8923
35.775 8.27546 1.94339
35.8155 8.27124 1.9431
35.935 8.25877 1.88628
35.9713 8.25498 1.94197
35.9988 8.2521 1.93575
36.003 8.25165 1.91838
36.0087 8.25107 1.9417
36.0754 8.24408 1.86149
36.111 8.24034 1.93492
36.1519 8.23605 1.94066
36.1861 8.23246 1.94041
36.2183 8.22907 1.91492
36.2348 8.22734 1.9244
36.2428 8.22649 1.89786
36.3162 8.21876 1.93947
36.3471 8.2155 1.93925
36.3725 8.21282 1.8627
36.4076 8.20911 1.92306
36.4197 8.20784 1.85272
36.4638 8.20317 1.93841
36.4843 8.20101 1.90999
36.4913 8.20026 1.93821
36.5222 8.19699 1.89541
36.5242 8.19678 1.86714
36.5522 8.19381 1.93165
36.5942 8.18936 1.93747
36.6182 8.18681 1.9373
36.6605 8.18231 1.93085
36.707 8.17737 1.93666
36.7121 8.17682 1.90812
36.7274 8.1752 1.93651
36.7461 8.1732 1.85738
36.8018 8.16727 1.93598
36.8143 8.16594 1.84751
36.8185 8.16548 1.93586
36.8783 8.1591 1.93543
36.8811 8.1588 1.86347
36.8914 8.1577 1.93534
36.907 8.15603 1.84592
36.9364 8.15289 1.93502
36.9458 8.15188 1.93495
36.9759 8.14866 1.93473
36.9815 8.14806 1.93469
36.9843 8.14776 1.87267
36.9966 8.14645 1.93459
36.9985 8.14624 1.93457
37.0855 8.13691 1.92772
37.0893 8.1365 1.91781
37.1413 8.13092 1.89993
37.1896 8.12572 1.92696
37.2232 8.1221 1.87409
37.2573 8.11843 1.91653
37.3026 8.11355 1.84109
37.3163 8.11207 1.86758
37.3868 8.10446 1.89591
37.542 8.08765 1.87108
37.5973 8.08165 1.92398
37.6038 8.08094 1.84438
37.6122 8.08003 1.90081
37.627 8.07842 1.88577
37.6969 8.07082 1.92325
37.8342 8.05585 1.89901
37.8999 8.04866 1.8834
37.9188 8.0466 1.91148
37.9836 8.03951 1.84013
38.0159 8.03597 1.92624
38.0357 8.03379 1.92589
38.0815 8.02876 1.91025
38.0861 8.02826 1.92043
38.181 8.01783 1.91975
38.194 8.0164 1.92313
38.2532 8.00989 1.92209
38.2586 8.00929 1.83567
38.2965 8.0051 1.84895
38.3974 7.99396 1.82648
38.424 7.99102 1.8788
38.5508 7.97697 1.91709
38.567 7.97518 1.91659
38.6407 7.96698 1.91644
38.6407 7.96699 1.83015
38.6472 7.96627 1.84536
38.6644 7.96435 1.91487
38.6776 7.96288 1.84649
38.6964 7.96079 1.87428
38.7101 7.95927 1.89198
38.7213 7.95802 1.90543
38.7941 7.9499 1.82119
38.8033 7.94888 1.85925
38.8784 7.9405 1.90426
38.8805 7.94026 1.82179
38.9259 7.93519 1.89027
38.9782 7.92933 1.8741
38.9901 7.928 1.91395
39.0257 7.92401 1.84106
39.0748 7.9185 1.91335
39.1151 7.91398 1.85634
39.1285 7.91247 1.90668
39.2444 7.89944 1.87183
39.2627 7.89737 1.9043
39.2737 7.89613 1.81697
39.4029 7.88155 1.91104
39.4822 7.87259 1.91048
39.4921 7.87146 1.82326
39.495 7.87114 1.89968
39.6461 7.854 1.89857
39.776 7.83923 1.88356
39.7882 7.83784 1.90834
39.8345 7.83256 1.85522
39.8618 7.82944 1.90782
39.8666 7.8289 1.81908
39.8697 7.82855 1.8935
39.9851 7.81535 1.88192
40.0364 7.80949 1.83123
40.0385 7.80925 1.89049
40.1305 7.7987 1.85023
40.1449 7.79704 1.90586
40.1827 7.79271 1.80773
40.2128 7.78925 1.90539
40.2381 7.78634 1.89425
40.2945 7.77985 1.86293
40.3479 7.7737 1.84494
40.3803 7.76996 1.82776
40.3829 7.76966 1.79992
40.383 7.76966 1.8932
40.4456 7.76242 1.81874
40.4724 7.75933 1.90361
40.5343 7.75218 1.90318
40.5534 7.74996 1.86077
40.5712 7.74791 1.80206
40.6524 7.73849 1.84216
40.7697 7.72488 1.90158
40.7792 7.72377 1.87719
40.7804 7.72363 1.7946
40.807 7.72054 1.81302
40.8079 7.72043 1.87556
40.8254 7.71839 1.9012
40.8402 7.71667 1.79782
40.9492 7.70397 1.88913
40.9802 7.70035 1.87356
41.0101 7.69686 1.87401
41.0361 7.69382 1.89978
41.0856 7.68803 1.89944
41.0874 7.68782 1.88815
41.2301 7.6711 1.79306
41.2711 7.66629 1.8982
41.3142 7.66122 1.89791
41.3531 7.65665 1.8026
41.3568 7.65621 1.82943
41.474 7.64242 1.89684
41.5107 7.63809 1.8966
41.5739 7.63062 1.85232
41.6266 7.62439 1.88435
41.6444 7.6223 1.89571
41.6734 7.61886 1.82403
41.6745 7.61873 1.89551
41.7218 7.61313 1.79854
41.7417 7.61077 1.81414
41.758 7.60884 1.88343
41.7818 7.60601 1.8948
41.8041 7.60337 1.86802
41.8053 7.60322 1.89465
41.8252 7.60087 1.85027
41.8444 7.59859 1.85789
41.8552 7.5973 1.83128
41.8861 7.59363 1.89412
41.9029 7.59163 1.89401
41.9568 7.58522 1.89366
41.9669 7.58401 1.89359
41.9939 7.5808 1.89341
41.9973 7.5804 1.89339
41.9988 7.58022 1.86656
42.0749 7.57115 1.8537
42.0784 7.57073 1.81081
42.1348 7.564 1.77918
42.152 7.56194 1.82863
42.2691 7.54794 1.8799
42.2749 7.54725 1.78972
42.3696 7.5359 1.77333
42.3932 7.53306 1.87905
42.5277 7.51689 1.77342
42.647 7.50253 1.78379
42.7626 7.48857 1.86095
42.7665 7.4881 1.76803
42.7819 7.48623 1.77425
42.8144 7.4823 1.84231
42.8751 7.47495 1.87579
42.9496 7.46592 1.85959
42.9759 7.46273 1.8017
42.9919 7.46079 1.87501
43.0147 7.45802 1.88461
43.0331 7.45578 1.88425
43.0516 7.45354 1.83582
43.0577 7.45279 1.84038
43.1677 7.43941 1.7696
43.1801 7.43791 1.8814
43.184 7.43743 1.78261
43.2351 7.43121 1.88033
43.3089 7.4222 1.83109
43.3101 7.42205 1.79595
43.3232 7.42045 1.81833
43.4103 7.40981 1.79781
43.4436 7.40573 1.87202
43.5268 7.39553 1.87465
43.5463 7.39314 1.77871
43.5526 7.39236 1.8713
43.6119 7.3851 1.81584
43.6176 7.3844 1.87289
43.6818 7.3765 1.85436
43.7394 7.36942 1.79464
43.8608 7.35446 1.8531
43.9732 7.34057 1.86857
44.0143 7.3355 1.83294
44.0501 7.33107 1.86444
44.0744 7.32806 1.86792
44.1059 7.32415 1.75034
44.1534 7.31827 1.75976
44.1753 7.31555 1.86199
44.2492 7.30638 1.83114
44.3514 7.29368 1.747
44.387 7.28924 1.81119
44.463 7.27976 1.86546
44.5018 7.27493 1.74457
44.534 7.27091 1.75369
44.5561 7.26815 1.86487
44.5601 7.26765 1.84827
44.6682 7.25413 1.80598
44.6777 7.25295 1.77235
44.7018 7.24993 1.75132
44.7307 7.24631 1.84711
44.7427 7.24481 1.85086
44.7467 7.24431 1.74179
44.7499 7.24391 1.80618
44.9008 7.22497 1.84775
44.912 7.22356 1.86266
44.9821 7.21474 1.76347
44.9968 7.21289 1.86214
45.0268 7.20912 1.76631
45.0301 7.2087 1.80385
45.04 7.20746 1.78236
45.0828 7.20205 1.74684
45.1716 7.19086 1.82424
45.3191 7.1722 1.86017
45.3376 7.16987 1.75976
45.3611 7.1669 1.77938
45.3955 7.16253 1.85971
45.3958 7.16249 1.84267
45.3977 7.16225 1.82258
45.5577 7.14194 1.84161
45.5958 7.1371 1.83405
45.6837 7.12591 1.85799
45.7514 7.11728 1.85759
45.7847 7.11303 1.83032
45.8367 7.10639 1.78428
46.0049 7.08489 1.85611
46.0639 7.07733 1.85576
46.0705 7.07648 1.72921
46.0884 7.07419 1.72155
46.1333 7.06842 1.79488
46.1392 7.06767 1.77864
46.1875 7.06147 1.83756
46.2821 7.0493 1.8545
46.2845 7.049 1.81622
46.3231 7.04403 1.72122
46.3322 7.04285 1.85422
46.3404 7.0418 1.8366
46.4047 7.03352 1.79273
46.4493 7.02777 1.74169
46.4577 7.02667 1.72306
46.4856 7.02307 1.71583
46.5016 7.02102 1.8147
46.5148 7.01931 1.85318
46.5559 7.01399 1.85295
46.5963 7.00877 1.72928
46.5989 7.00843 1.81418
46.6287 7.00458 1.7679
46.7024 6.99504 1.85212
46.7158 6.99331 1.71616
46.7345 6.99088 1.85195
46.7449 6.98953 1.74534
46.8109 6.98096 1.73543
46.8166 6.98022 1.80986
46.8446 6.97659 1.85133
46.8676 6.97361 1.85121
46.9337 6.96501 1.83293
46.9411 6.96405 1.8508
